 Al Density=2.6989 Thickness=1000. microns
 Photon Energy (eV), Transmission
    10.000      0.00000    
    309.90      0.00000    
    609.80      0.00000    
    909.70      0.00000    
    1209.6      0.00000    
    1509.5      0.00000    
    1809.4      0.00000    
    2109.3      0.00000    
    2409.2      0.00000    
    2709.1      0.00000    
    3009.0      0.00000    
    3308.9      0.00000    
    3608.8      0.00000    
    3908.7      0.12612E-43
    4208.6      0.21866E-35
    4508.5      0.45750E-29
    4808.4      0.37822E-24
    5108.3      0.28714E-20
    5408.2      0.36407E-17
    5708.1      0.11786E-14
    6008.0      0.13291E-12
    6307.9      0.65653E-11
    6607.8      0.16890E-09
    6907.7      0.25769E-08
    7207.6      0.25791E-07
    7507.5      0.18317E-06
    7807.4      0.98147E-06
    8107.3      0.41658E-05
    8407.2      0.14565E-04
    8707.1      0.43286E-04
    9007.0      0.11215E-03
    9306.9      0.25872E-03
    9606.8      0.54042E-03
    9906.7      0.10371E-02
    10207.      0.18505E-02
    10507.      0.31000E-02
    10806.      0.49164E-02
    11106.      0.74338E-02
    11406.      0.10782E-01
    11706.      0.15076E-01
    12006.      0.20411E-01
    12306.      0.26860E-01
    12606.      0.34466E-01
    12906.      0.43247E-01
    13206.      0.53195E-01
    13505.      0.64276E-01
    13805.      0.76439E-01
    14105.      0.89611E-01
    14405.      0.10371    
    14705.      0.11865    
    15005.      0.13432    
    15305.      0.15064    
    15605.      0.16751    
    15905.      0.18481    
    16205.      0.20245    
    16504.      0.22035    
    16804.      0.23841    
    17104.      0.25656    
    17404.      0.27473    
    17704.      0.29285    
    18004.      0.31087    
    18304.      0.32872    
    18604.      0.34637    
    18904.      0.36378    
    19204.      0.38091    
    19504.      0.39773    
    19803.      0.41424    
    20103.      0.43048    
    20403.      0.44628    
    20703.      0.46169    
    21003.      0.47671    
    21303.      0.49132    
    21603.      0.50552    
    21903.      0.51932    
    22203.      0.53271    
    22502.      0.54571    
    22802.      0.55830    
    23102.      0.57051    
    23402.      0.58233    
    23702.      0.59377    
    24002.      0.60485    
    24302.      0.61556    
    24602.      0.62592    
    24902.      0.63594    
    25202.      0.64562    
    25501.      0.65498    
    25801.      0.66403    
    26101.      0.67277    
    26401.      0.68121    
    26701.      0.68937    
    27001.      0.69725    
    27301.      0.70487    
    27601.      0.71222    
    27901.      0.71933    
    28201.      0.72619    
    28500.      0.73282    
    28800.      0.73923    
    29100.      0.74542    
    29400.      0.75140    
    29700.      0.75718    
    30000.      0.76276    
